Deltares							
Deltares Systems 							
							
"P.O. Box 69 NL-2600 AB DELFT"							
"tel. +31 15 26 93 500 fax. +31 15 26 10 821"							
							
 File: Benchmark D-Settlement 4-4				
 Isotache model with Koppejan consolidation (OCR)							
 Fit factors : a/b=2  b=1.5  c/b=0.9  POP/Pc/OCR=0.8   Cv=5							
 Projectomschrijving:					
							
 Zakbaak nr. / Bijlage nr.  		213	dp53+160/A		Datum start ophoging		
							
 Plaatsing d.d.							
 Ontregeld d.d.				Hoogte voetplaat (m. tov. NAP):			
							
						Zetting	
			Hoogte	Totale	Hoogte	t.o.v.	
		Bovenkant	waterstand	buislengte	bovenkant	vorige	
Datum		ophoging	in buis	zakbaak	buis	aflezing	
aflezing		(m.tov.NAP)	(m.tov.NAP)	(m)	(m.tov.NAP)	(m)	Opmerkingen
[Begin measurements]	0.00000				3.413	0.000	
0    0.71
0.1    0.74
0.2    0.75
0.33    0.77
0.49    0.78
0.7    0.8
0.96    0.83
1.29    0.85
1.71    0.88
2.23    0.91
2.9    0.95
3.74    1
4.8    1.05
6.15    1.11
7.85    1.19
10    1.27
10.1    1.28
10.2    1.3
10.33    1.31
10.49    1.32
10.69    1.34
10.95    1.36
11.27    1.39
11.68    1.42
12.19    1.45
12.84    1.5
13.66    1.55
14.69    1.6
15.99    1.67
17.63    1.75
19.71    1.85
22.32    1.96
25.62    2.09
29.78    2.25
35.03    2.42
41.65    2.63
50    2.87
50.1    2.87
50.2    2.87
50.32    2.88
50.48    2.88
50.68    2.89
50.93    2.9
51.24    2.91
51.64    2.92
52.13    2.94
52.76    2.96
53.54    2.98
54.53    3.01
55.77    3.05
57.33    3.1
59.3    3.16
61.77    3.23
64.87    3.32
68.78    3.42
73.7    3.55
79.88    3.71
87.66    3.89
97.45    4.11
109.75    4.37
125.23    4.66
144.7    5
169.2    5.37
200    5.77
200.1    5.76
200.2    5.76
200.33    5.75
200.48    5.75
200.68    5.74
200.93    5.74
201.25    5.74
201.65    5.74
202.15    5.73
202.78    5.73
203.57    5.73
204.56    5.73
205.82    5.73
207.4    5.74
209.39    5.74
211.89    5.75
215.04    5.77
219    5.79
223.99    5.81
230.27    5.85
238.17    5.89
248.12    5.94
260.64    6
276.4    6.08
296.24    6.16
321.21    6.26
352.63    6.35
392.19    6.45
441.97    6.54
504.64    6.62
583.51    6.69
682.78    6.74
807.73    6.77
965    6.79
